# Template of an M9-type object
# Original filename = M9_spex-prism_KPNO4_20041111_MUE07A.txt
# Incorrect error spectrum supplied with original file (all zeroes)
# col 1 = wavelength (Angstroms), col 2 = flux (normalised F_lambda)
#
7851.73  8.729280E-06
7878.58  1.807114E-05
7905.61  2.045945E-05
7932.83  2.898645E-05
7960.24  2.955970E-05
7987.84  2.735757E-05
8015.64  2.446586E-05
8043.62  3.029578E-05
8071.81  3.997851E-05
8100.18  2.724157E-05
8128.75  3.994714E-05
8157.52  4.017793E-05
8186.49  4.095405E-05
8215.65  4.694581E-05
8245.00  4.895407E-05
8274.56  2.772395E-05
8304.31  3.904823E-05
8334.26  3.598834E-05
8364.40  3.470704E-05
8394.75  2.147104E-05
8425.29  2.723534E-05
8456.02  1.993203E-05
8486.96  2.064375E-05
8518.08  1.494696E-05
8549.41  1.959346E-05
8580.93  2.035991E-05
8612.64  2.013457E-05
8644.55  2.128374E-05
8676.65  1.918549E-05
8708.94  2.967415E-05
8741.43  2.822901E-05
8774.11  4.158314E-05
8806.97  4.137659E-05
8840.03  4.585926E-05
8873.27  3.556235E-05
8906.71  4.426242E-05
8940.32  4.887354E-05
8974.13  5.819335E-05
9008.11  5.490134E-05
9042.28  5.798858E-05
9076.64  6.529045E-05
9111.17  6.951073E-05
9145.88  7.341915E-05
9180.77  6.702243E-05
9215.83  6.342044E-05
9251.07  6.221454E-05
9286.48  5.801105E-05
9322.07  5.134906E-05
9357.82  5.776480E-05
9393.75  5.131024E-05
9429.84  5.876615E-05
9466.09  6.379704E-05
9502.51  6.298166E-05
9539.10  6.493464E-05
9575.84  6.876353E-05
9612.74  7.494492E-05
9649.80  7.275236E-05
9687.02  6.937059E-05
9724.39  7.362725E-05
9761.91  7.417347E-05
9799.57  7.720811E-05
9837.39  7.934662E-05
9875.36  7.859841E-05
9913.46  8.283349E-05
9951.71  8.649855E-05
9990.11  9.023023E-05
10028.60  8.996418E-05
10067.30  8.909408E-05
10106.10  8.831351E-05
10145.00  9.353136E-05
10184.10  9.597763E-05
10223.30  9.554452E-05
10262.60  9.834826E-05
10302.10  1.013217E-04
10341.60  1.024466E-04
10381.30  1.033513E-04
10421.10  1.001203E-04
10461.00  9.307345E-05
10501.10  8.483842E-05
10541.20  7.863545E-05
10581.50  8.007625E-05
10621.80  7.825106E-05
10662.30  8.223867E-05
10702.90  8.940650E-05
10743.50  9.869494E-05
10784.30  1.060797E-04
10825.20  1.112541E-04
10866.20  1.134764E-04
10907.20  1.132039E-04
10948.40  1.119916E-04
10989.60  1.075680E-04
11030.90  1.039998E-04
11072.40  1.047044E-04
11113.90  1.030479E-04
11155.40  1.013740E-04
11197.10  1.025465E-04
11238.80  1.042648E-04
11280.60  1.034081E-04
11322.50  1.022415E-04
11364.40  1.014408E-04
11406.50  1.018467E-04
11448.50  1.029903E-04
11490.70  1.071409E-04
11532.90  1.057993E-04
11575.20  1.056353E-04
11617.50  1.063979E-04
11659.90  1.044743E-04
11702.30  9.997179E-05
11744.80  9.514155E-05
11787.30  9.391987E-05
11829.90  8.955121E-05
11872.50  8.841817E-05
11915.20  8.783836E-05
11957.90  8.895393E-05
12000.70  8.920708E-05
12043.50  9.181028E-05
12086.30  9.448733E-05
12129.20  9.827162E-05
12172.10  1.008129E-04
12215.00  1.025231E-04
12258.00  1.051233E-04
12301.00  1.068763E-04
12344.00  1.050439E-04
12387.00  1.035438E-04
12430.10  1.032203E-04
12473.10  1.027641E-04
12516.20  1.025612E-04
12559.30  1.031242E-04
12602.50  1.026584E-04
12645.60  1.051479E-04
12688.80  1.063923E-04
12731.90  1.086051E-04
12775.10  1.116979E-04
12818.30  1.083702E-04
12861.40  1.099720E-04
12904.60  1.101675E-04
12947.80  1.138479E-04
12991.00  1.136076E-04
13034.20  1.124932E-04
13077.30  1.126211E-04
13120.50  1.110317E-04
13163.70  1.110516E-04
13206.80  1.072065E-04
13250.00  1.001520E-04
13293.10  9.184498E-05
13336.20  8.273706E-05
13379.30  7.483058E-05
13422.40  6.837425E-05
13465.50  6.523862E-05
13508.60  6.328541E-05
13551.60  6.206751E-05
13594.60  5.977062E-05
13637.60  5.709334E-05
13680.60  5.860477E-05
13723.60  5.391400E-05
13766.50  5.395749E-05
13809.40  5.647015E-05
13852.30  5.582294E-05
13895.10  5.649173E-05
13937.90  5.499654E-05
13980.70  5.539117E-05
14023.50  5.200951E-05
14066.20  5.293545E-05
14108.90  5.195712E-05
14151.50  4.807262E-05
14194.10  4.907175E-05
14236.70  4.743442E-05
14279.20  4.631506E-05
14321.70  4.752206E-05
14364.20  4.770080E-05
14406.60  4.839417E-05
14448.90  4.934658E-05
14491.30  4.831987E-05
14533.60  4.947916E-05
14575.80  4.826192E-05
14618.00  4.931800E-05
14660.10  4.979737E-05
14702.20  4.794260E-05
14744.30  4.722543E-05
14786.30  4.710597E-05
14828.20  4.870259E-05
14870.10  4.812768E-05
14912.00  4.888322E-05
14953.70  4.857357E-05
14995.50  4.999891E-05
15037.20  4.988646E-05
15078.80  5.203976E-05
15120.40  5.281755E-05
15161.90  5.258632E-05
15203.40  5.274826E-05
15244.80  5.415435E-05
15286.10  5.455599E-05
15327.40  5.479100E-05
15368.70  5.498386E-05
15409.90  5.656558E-05
15451.00  5.639930E-05
15492.10  5.725417E-05
15533.10  5.907257E-05
15574.00  5.863791E-05
15614.90  5.916889E-05
15655.70  5.985370E-05
15696.50  6.100331E-05
15737.20  6.150549E-05
15777.80  6.089787E-05
15818.40  6.232199E-05
15858.90  6.266222E-05
15899.30  6.400303E-05
15939.70  6.327618E-05
15980.00  6.598571E-05
16020.30  6.837436E-05
16060.50  6.617290E-05
16100.60  6.747511E-05
16140.70  6.670867E-05
16180.70  6.826191E-05
16220.60  6.916939E-05
16260.50  6.898464E-05
16300.30  7.198970E-05
16340.10  7.075633E-05
16379.70  7.135539E-05
16419.30  7.211816E-05
16458.90  7.097633E-05
16498.40  7.238566E-05
16537.80  7.254181E-05
16577.10  7.443529E-05
16616.40  7.405780E-05
16655.60  7.401420E-05
16694.80  7.508629E-05
16733.90  7.552918E-05
16772.90  7.594594E-05
16811.90  7.602780E-05
16850.70  7.482569E-05
16889.60  7.380510E-05
16928.30  7.334797E-05
16967.00  7.336810E-05
17005.60  7.189638E-05
17044.20  7.109290E-05
17082.70  6.973897E-05
17121.10  6.829461E-05
17159.50  6.626444E-05
17197.80  6.471820E-05
17236.10  6.410558E-05
17274.20  6.279358E-05
17312.30  6.118072E-05
17350.40  6.133387E-05
17388.40  5.962636E-05
17426.30  5.852024E-05
17464.10  5.785867E-05
17501.90  5.742223E-05
17539.60  5.553598E-05
17577.30  5.509909E-05
17614.90  5.447524E-05
17652.40  5.265272E-05
17689.90  5.111616E-05
17727.30  5.105343E-05
17764.70  4.992995E-05
17802.00  4.846001E-05
17839.20  4.751372E-05
17876.30  4.695226E-05
17913.50  4.687240E-05
17950.50  4.595647E-05
17987.50  4.463546E-05
18024.40  4.363611E-05
18061.30  4.543839E-05
18098.10  4.381162E-05
18134.80  4.332913E-05
18171.50  4.360319E-05
18208.10  4.523518E-05
18244.70  4.385912E-05
18281.20  4.310991E-05
18317.60  4.468062E-05
18354.00  4.150439E-05
18390.30  4.014034E-05
18426.60  4.109909E-05
18462.80  3.776303E-05
18499.00  3.778617E-05
18535.10  3.691629E-05
18571.10  3.675568E-05
18607.10  3.673021E-05
18643.00  3.564944E-05
18678.90  3.510367E-05
18714.70  3.787092E-05
18750.50  3.528897E-05
18786.20  3.593907E-05
18821.90  3.656037E-05
18857.50  3.651354E-05
18893.00  3.765237E-05
18928.50  3.812707E-05
18963.90  3.886071E-05
18999.30  3.824552E-05
19034.70  3.743170E-05
19070.00  3.857575E-05
19105.20  3.880843E-05
19140.40  3.731124E-05
19175.50  3.756906E-05
19210.60  3.804677E-05
19245.60  3.898283E-05
19280.60  3.871667E-05
19315.50  3.759687E-05
19350.40  3.705064E-05
19385.20  3.708101E-05
19420.00  3.692941E-05
19454.70  3.671775E-05
19489.30  3.674978E-05
19524.00  3.696166E-05
19558.50  3.540909E-05
19593.10  3.636472E-05
19627.50  3.611047E-05
19662.00  3.576500E-05
19696.30  3.584041E-05
19730.70  3.495952E-05
19765.00  3.432031E-05
19799.20  3.466155E-05
19833.40  3.460460E-05
19867.50  3.352940E-05
19901.60  3.412167E-05
19935.70  3.418596E-05
19969.70  3.358323E-05
20003.60  3.405026E-05
20037.50  3.285972E-05
20071.40  3.281389E-05
20105.20  3.325356E-05
20138.90  3.222819E-05
20172.70  3.376230E-05
20206.30  3.292523E-05
20240.00  3.248234E-05
20273.50  3.277853E-05
20307.10  3.376175E-05
20340.60  3.277752E-05
20374.00  3.319217E-05
20407.40  3.365486E-05
20440.80  3.358757E-05
20474.10  3.240526E-05
20507.30  3.363061E-05
20540.60  3.342796E-05
20573.70  3.368066E-05
20606.90  3.355509E-05
20639.90  3.394282E-05
20673.00  3.307905E-05
20706.00  3.359424E-05
20738.90  3.337157E-05
20771.80  3.388187E-05
20804.70  3.421943E-05
20837.50  3.426771E-05
20870.20  3.435402E-05
20903.00  3.476254E-05
20935.60  3.495262E-05
20968.30  3.503415E-05
21000.90  3.515305E-05
21033.40  3.546147E-05
21065.90  3.565734E-05
21098.30  3.632680E-05
21130.70  3.545947E-05
21163.10  3.608733E-05
21195.40  3.652945E-05
21227.70  3.628353E-05
21259.90  3.648418E-05
21292.10  3.735862E-05
21324.20  3.706266E-05
21356.30  3.780063E-05
21388.30  3.728444E-05
21420.30  3.778795E-05
21452.20  3.797147E-05
21484.10  3.819970E-05
21516.00  3.848132E-05
21547.80  3.771654E-05
21579.50  3.820204E-05
21611.30  3.869598E-05
21642.90  3.929392E-05
21674.50  3.857820E-05
21706.10  3.905001E-05
21737.60  3.901842E-05
21769.10  3.863926E-05
21800.50  3.858042E-05
21831.90  3.907548E-05
21863.20  3.940170E-05
21894.50  3.925933E-05
21925.70  3.909305E-05
21956.90  3.974916E-05
21988.00  3.990254E-05
22019.10  4.022454E-05
22050.10  4.059269E-05
22081.10  3.968599E-05
22112.00  3.992768E-05
22142.90  3.998173E-05
22173.80  4.080690E-05
22204.50  3.985271E-05
22235.30  4.001710E-05
22266.00  4.012354E-05
22296.60  4.023988E-05
22327.20  3.977786E-05
22357.70  3.972447E-05
22388.20  4.049425E-05
22418.60  4.064808E-05
22449.00  4.000153E-05
22479.30  4.026013E-05
22509.60  3.995704E-05
22539.80  3.989909E-05
22570.00  4.074562E-05
22600.10  4.101667E-05
22630.20  4.035133E-05
22660.20  4.015146E-05
22690.20  3.983558E-05
22720.10  4.053696E-05
22749.90  3.969355E-05
22779.70  3.868764E-05
22809.50  3.973660E-05
22839.20  4.027325E-05
22868.90  3.924098E-05
22898.50  3.902699E-05
22928.00  3.855829E-05
22957.50  3.729400E-05
22987.00  3.593362E-05
23016.30  3.583986E-05
23045.70  3.644314E-05
23075.00  3.712617E-05
23104.20  3.622325E-05
23133.40  3.644558E-05
23162.50  3.573531E-05
23191.60  3.561719E-05
23220.70  3.490958E-05
23249.70  3.393971E-05
23278.60  3.309151E-05
23307.50  3.365219E-05
23336.30  3.390345E-05
23365.10  3.345521E-05
23393.80  3.415637E-05
23422.50  3.358768E-05
23451.20  3.308550E-05
23479.80  3.274805E-05
23508.30  3.193767E-05
23536.80  3.111650E-05
23565.20  3.076793E-05
23593.60  3.049009E-05
23622.00  3.103776E-05
23650.30  3.127444E-05
23678.60  3.088727E-05
23706.80  3.178040E-05
23735.00  3.139634E-05
23763.20  3.107112E-05
23791.30  3.079384E-05
23819.30  2.951488E-05
23847.30  2.822857E-05
23875.30  2.965780E-05
23903.30  2.879403E-05
23931.20  2.848483E-05
23959.00  2.930533E-05
23986.90  2.894263E-05
24014.70  2.786398E-05
24042.50  2.753197E-05
24070.20  2.736202E-05
24097.90  2.739250E-05
24125.60  2.594525E-05
24153.20  2.636512E-05
24180.90  2.551670E-05
24208.50  2.479186E-05
24236.00  2.584048E-05
24263.60  2.482722E-05
24291.10  2.512330E-05
24318.70  2.513643E-05
24346.20  2.392953E-05
24373.60  2.329411E-05
24401.10  2.308735E-05
24428.60  2.366493E-05
24456.00  2.292463E-05
24483.50  2.350499E-05
24510.90  2.211124E-05
24538.40  2.402018E-05
24565.80  2.122156E-05
24593.20  2.152409E-05
24620.70  2.233024E-05
24648.10  2.135603E-05
24675.60  2.119053E-05
24703.00  2.020064E-05
24730.50  2.039216E-05
24758.00  2.080169E-05
24785.50  1.934232E-05
24813.10  2.042831E-05
24840.60  2.076499E-05
24868.20  1.902856E-05
24895.90  1.887985E-05
24923.50  1.893290E-05
24951.20  1.814655E-05
24979.00  1.942507E-05
25006.70  1.918660E-05
25034.60  1.764348E-05
25062.40  1.846287E-05
25090.40  1.957366E-05
25118.40  1.815066E-05
25146.40  1.833752E-05
25174.60  1.780687E-05
25202.80  1.863182E-05
25231.10  1.802409E-05
25259.40  1.782611E-05
25287.90  1.403148E-05
25316.40  1.997162E-05
25345.00  1.988687E-05
25373.70  1.656327E-05
25402.60  1.745696E-05
25431.50  1.647474E-05
25460.60  1.003483E-05
25489.70  1.651534E-05
25519.00  1.789741E-05
25548.50  1.799395E-05
25578.00  2.253045E-05
25607.70  1.406796E-05
